# Voltage [mV]  Duration [ms]
-80             500
  5.88661754683 756.9
-41.01978351214 7.3
  8.48926849529 100.6
-80             500
-80.73655406548 106.2
 -2.09514923005 103.7
-80             500
-86.58595790567 183
-51.64755699949 101.9
-80             500
 54.16852399168 272.1
 59.97213820254 102.8
-80             500
-76.32345534079 52.2
-119.9098139590 102.7
-80             500
-119.5582763132 187.5
-119.9338123771 749.4
-77.13363472326 94.9
-118.3493030074 8
-80             500
 55.27852930813 729.4
 48.38635119401 996.6
 58.79932588610 894.9

